#Collected Data-3
#Intensity_unit=cps
43.0000	42.2625
43.0020	56.8812
43.0040	42.3245
43.0060	55.5355
43.0080	53.0713
43.0100	52.4499
43.0120	37.2100
43.0140	70.7548
43.0160	60.6085
43.0180	54.9969
43.0200	58.0410
43.0220	56.9019
43.0240	50.5243
43.0260	64.9777
43.0280	69.4710
43.0300	63.8386
43.0320	54.9349
43.0340	59.3661
43.0360	46.1344
43.0380	57.4818
43.0400	66.3028
43.0420	53.6717
43.0440	61.2711
43.0460	58.0617
43.0480	52.4499
43.0500	64.3772
43.0520	73.8815
43.0540	64.4598
43.0560	50.5243
43.0580	65.6609
43.0600	60.6499
43.0620	81.4601
43.0640	75.1446
43.0660	61.8716
43.0680	46.0931
43.0700	81.4601
43.0720	61.3124
43.0740	54.2516
43.0760	76.5110
43.0780	56.1567
43.0800	52.4707
43.0820	59.3248
43.0840	54.3137
43.0860	81.4601
43.0880	73.9435
43.0900	36.6301
43.0920	72.5771
43.0940	75.2066
43.0960	48.5987
43.0980	73.2396
43.1000	78.3747
43.1020	64.3978
43.1040	55.5768
43.1060	45.4926
43.1080	41.0407
43.1100	33.4414
43.1120	62.5135
43.1140	56.8399
43.1160	71.9765
43.1180	56.2393
43.1200	64.9984
43.1220	72.6804
43.1240	70.7134
43.1260	70.7341
43.1280	37.3134
43.1300	66.9034
43.1320	68.8290
43.1340	62.5548
43.1360	62.4929
43.1380	69.4917
43.1400	70.0922
43.1420	65.7229
43.1440	64.4185
43.1460	80.7563
43.1480	65.7023
43.1500	70.7548
43.1520	90.3226
43.1540	82.0813
43.1560	67.6072
43.1580	72.6184
43.1600	67.5867
43.1620	95.9755
43.1640	82.1020
43.1660	87.1545
43.1680	69.4502
43.1700	86.5539
43.1720	77.0083
43.1740	72.0385
43.1760	79.5758
43.1780	61.8510
43.1800	72.6804
43.1820	80.8182
43.1840	75.1446
43.1860	81.4808
43.1880	85.2495
43.1900	76.4284
43.1920	85.9327
43.1940	68.1458
43.1960	68.8704
43.1980	68.2492
43.2000	68.1458
43.2020	57.5024
43.2040	72.6184
43.2060	72.6184
43.2080	88.9975
43.2100	75.2066
43.2120	46.7763
43.2140	81.9987
43.2160	83.3859
43.2180	86.5746
43.2200	58.7242
43.2220	70.0922
43.2240	70.1335
43.2260	63.7766
43.2280	61.2504
43.2300	87.7757
43.2320	83.3444
43.2340	93.4493
43.2360	96.6381
43.2380	48.0394
43.2400	61.9130
43.2420	67.5659
43.2440	101.6078
43.2460	99.8063
43.2480	75.8072
43.2500	82.7853
43.2520	80.1764
43.2540	106.6810
43.2560	94.1532
43.2580	82.0813
43.2600	104.2168
43.2620	89.7014
43.2640	92.7868
43.2660	86.5953
43.2680	88.9768
43.2700	108.7099
43.2720	94.0499
43.2740	70.6720
43.2760	116.9099
43.2780	92.1656
43.2800	80.8597
43.2820	76.4904
43.2840	91.5650
43.2860	82.0813
43.2880	73.2190
43.2900	107.9648
43.2920	85.2702
43.2940	84.0276
43.2960	56.8399
43.2980	70.7341
43.3000	99.1231
43.3020	84.0276
43.3040	72.6184
43.3060	70.7548
43.3080	78.3127
43.3100	78.9339
43.3120	72.6391
43.3140	92.8694
43.3160	76.4077
43.3180	111.7334
43.3200	80.2798
43.3220	46.0311
43.3240	108.6480
43.3260	102.2911
43.3280	110.5323
43.3300	102.3325
43.3320	82.0607
43.3340	113.0791
43.3360	109.8904
43.3380	97.2593
43.3400	114.9016
43.3420	117.4898
43.3440	107.3229
43.3460	106.1218
43.3480	104.2581
43.3500	112.9965
43.3520	131.3840
43.3540	107.9234
43.3560	121.3410
43.3580	116.2060
43.3600	119.3741
43.3620	125.6276
43.3640	110.5323
43.3660	128.1538
43.3680	125.1511
43.3700	99.1436
43.3720	96.0170
43.3740	106.6603
43.3760	107.9854
43.3780	130.1828
43.3800	91.5237
43.3820	124.9857
43.3840	106.1218
43.3860	118.7529
43.3880	113.1206
43.3900	103.5336
43.3920	105.4799
43.3940	124.3645
43.3960	93.5526
43.3980	107.3435
43.4000	110.5116
43.4020	113.0378
43.4040	96.0583
43.4060	104.7554
43.4080	103.6162
43.4100	97.2386
43.4120	101.7112
43.4140	124.3852
43.4160	121.8590
43.4180	109.9524
43.4200	104.8173
43.4220	111.7541
43.4240	107.4055
43.4260	101.6906
43.4280	109.8491
43.4300	139.5631
43.4320	135.7945
43.4340	161.0360
43.4360	127.5947
43.4380	129.4790
43.4400	139.5425
43.4420	129.4995
43.4440	135.1939
43.4460	142.0067
43.4480	148.4256
43.4500	129.5203
43.4520	128.7337
43.4540	135.8358
43.4560	155.9835
43.4580	146.4793
43.4600	137.7201
43.4620	144.6568
43.4640	148.4256
43.4660	145.2575
43.4680	155.9629
43.4700	133.9102
43.4720	145.8787
43.4740	139.5631
43.4760	141.4061
43.4780	159.8556
43.4800	152.8361
43.4820	120.0366
43.4840	135.0906
43.4860	138.9419
43.4880	125.0890
43.4900	134.4901
43.4920	121.9209
43.4940	118.0697
43.4960	137.6581
43.4980	129.4377
43.5000	153.5400
43.5020	115.6468
43.5040	143.3319
43.5060	125.6483
43.5080	114.9429
43.5100	128.1538
43.5120	154.7617
43.5140	140.8262
43.5160	169.8571
43.5180	132.0465
43.5200	130.0794
43.5220	120.6372
43.5240	144.0151
43.5260	160.3527
43.5280	147.7837
43.5300	138.9419
43.5320	185.0763
43.5340	158.5510
43.5360	165.9851
43.5380	192.0338
43.5400	151.5730
43.5420	188.2444
43.5440	166.0678
43.5460	185.0970
43.5480	200.7929
43.5500	202.6979
43.5520	168.6559
43.5540	186.8987
43.5560	185.0557
43.5580	193.2556
43.5600	192.6550
43.5620	215.3083
43.5640	187.6645
43.5660	192.5724
43.5680	176.8559
43.5700	165.4465
43.5720	179.3821
43.5740	150.3306
43.5760	183.7719
43.5780	174.9922
43.5800	140.1637
43.5820	149.6680
43.5840	140.2050
43.5860	152.7741
43.5880	180.6658
43.5900	145.8994
43.5920	133.8895
43.5940	157.2466
43.5960	142.1306
43.5980	154.7824
43.6000	141.4268
43.6020	143.2904
43.6040	140.8675
43.6060	154.6791
43.6080	191.3919
43.6100	178.1396
43.6120	140.8262
43.6140	174.2882
43.6160	155.4243
43.6180	143.9530
43.6200	227.3182
43.6220	202.8218
43.6240	186.8987
43.6260	198.8879
43.6280	180.7071
43.6300	227.2769
43.6320	212.2435
43.6340	219.7601
43.6360	210.2766
43.6380	219.1389
43.6400	233.6958
43.6420	222.9490
43.6440	197.6661
43.6460	206.5286
43.6480	197.6455
43.6500	238.0856
43.6520	267.8203
43.6540	215.3496
43.6560	241.2330
43.6580	201.5382
43.6600	222.9490
43.6620	251.2965
43.6640	239.9699
43.6660	251.9592
43.6680	214.2311
43.6700	218.4144
43.6720	246.8240
43.6740	241.3157
43.6760	209.7586
43.6780	234.8968
43.6800	226.7589
43.6820	207.1498
43.6840	205.9280
43.6860	194.4774
43.6880	242.5788
43.6900	223.5082
43.6920	245.6229
43.6940	216.0949
43.6960	222.9077
43.6980	199.5298
43.7000	218.5590
43.7020	204.5615
43.7040	218.5798
43.7060	183.7926
43.7080	214.1278
43.7100	220.9200
43.7120	204.5615
43.7140	263.4718
43.7160	217.2959
43.7180	234.8761
43.7200	231.7080
43.7220	250.1368
43.7240	251.4206
43.7260	239.9080
43.7280	276.0615
43.7300	263.2857
43.7320	297.4930
43.7340	287.3881
43.7360	287.4295
43.7380	282.7916
43.7400	286.1250
43.7420	276.5794
43.7440	276.0408
43.7460	274.1358
43.7480	310.0621
43.7500	322.6105
43.7520	292.4612
43.7540	320.8915
43.7560	298.6527
43.7580	335.3449
43.7600	283.5782
43.7620	289.3964
43.7640	289.8110
43.7660	305.6102
43.7680	308.8403
43.7700	294.8841
43.7720	330.3752
43.7740	281.6524
43.7760	281.6732
43.7780	272.9760
43.7800	301.0551
43.7820	249.5569
43.7840	272.1895
43.7860	297.4517
43.7880	264.0517
43.7900	255.1272
43.7920	274.6537
43.7940	259.0611
43.7960	253.9055
43.7980	244.9810
43.8000	303.7672
43.8020	260.2416
43.8040	270.9677
43.8060	294.8841
43.8080	287.2642
43.8100	328.4289
43.8120	275.5022
43.8140	291.6541
43.8160	318.8625
43.8180	318.3033
43.8200	343.6068
43.8220	313.2922
43.8240	312.6090
43.8260	332.7774
43.8280	329.6093
43.8300	337.8711
43.8320	346.1950
43.8340	371.9750
43.8360	361.8702
43.8380	383.8196
43.8400	377.8553
43.8420	389.5759
43.8440	360.7104
43.8460	339.0722
43.8480	365.0590
43.8500	354.4361
43.8520	357.3564
43.8540	381.3554
43.8560	375.8471
43.8580	376.5096
43.8600	368.7656
43.8620	406.0169
43.8640	427.5931
43.8660	360.6898
43.8680	393.3859
43.8700	385.8486
43.8720	394.1518
43.8740	373.2381
43.8760	338.4717
43.8780	339.8794
43.8800	328.9260
43.8820	369.5316
43.8840	305.0923
43.8860	375.6818
43.8880	349.8603
43.8900	345.4498
43.8920	363.7959
43.8940	377.6281
43.8960	354.9748
43.8980	360.0479
43.9000	351.7860
43.9020	293.0204
43.9040	344.1246
43.9060	360.6484
43.9080	375.1225
43.9100	397.8998
43.9120	420.5325
43.9140	382.1419
43.9160	394.0485
43.9180	440.1623
43.9200	461.0759
43.9220	508.4528
43.9240	461.6557
43.9260	453.4352
43.9280	469.1931
43.9300	450.9917
43.9320	473.5210
43.9340	483.8531
43.9360	468.5306
43.9380	545.1242
43.9400	560.7581
43.9420	512.2628
43.9440	551.8130
43.9460	535.7026
43.9480	563.8849
43.9500	543.8818
43.9520	570.1384
43.9540	566.0172
43.9560	512.2008
43.9580	530.4022
43.9600	528.0619
43.9620	512.1595
43.9640	527.9586
43.9660	517.3358
43.9680	482.4454
43.9700	445.3799
43.9720	449.5426
43.9740	498.2238
43.9760	457.3898
43.9780	500.0256
43.9800	489.0709
43.9820	457.8044
43.9840	469.8556
43.9860	457.1419
43.9880	474.4935
43.9900	443.2064
43.9920	453.5385
43.9940	426.3094
43.9960	463.4575
43.9980	448.4035
44.0000	462.3597
44.0020	445.9393
44.0040	467.9920
44.0060	499.2805
44.0080	562.3311
44.0100	493.7514
44.0120	560.7788
44.0140	512.8840
44.0160	575.8328
44.0180	545.0829
44.0200	533.6323
44.0220	528.1446
44.0240	626.9783
44.0260	640.4166
44.0280	673.2367
44.0300	634.7223
44.0320	670.1306
44.0340	640.8312
44.0360	680.2976
44.0380	742.6664
44.0400	732.0643
44.0420	668.7021
44.0440	702.9714
44.0460	737.4899
44.0480	663.2145
44.0500	698.0223
44.0520	688.9119
44.0540	675.8868
44.0560	679.4903
44.0580	696.5113
44.0600	665.7820
44.0620	597.5535
44.0640	626.4810
44.0660	632.6933
44.0680	661.1648
44.0700	612.7935
44.0720	597.9888
44.0740	579.8493
44.0760	604.3249
44.0780	592.9157
44.0800	557.2167
44.0820	595.5452
44.0840	578.5449
44.0860	563.2843
44.0880	551.2951
44.0900	584.2806
44.0920	583.5147
44.0940	582.7902
44.0960	595.0894
44.0980	684.4808
44.1000	611.3858
44.1020	594.9033
44.1040	638.5116
44.1060	678.7864
44.1080	701.7704
44.1100	703.4067
44.1120	729.4554
44.1140	800.8727
44.1160	798.8851
44.1180	717.5075
44.1200	755.2355
44.1220	805.9458
44.1240	812.7999
44.1260	819.0741
44.1280	872.2072
44.1300	832.3057
44.1320	874.1536
44.1340	861.8544
44.1360	881.6289
44.1380	887.4473
44.1400	928.2400
44.1420	885.7282
44.1440	870.2403
44.1460	870.9648
44.1480	789.3394
44.1500	872.9317
44.1520	862.6823
44.1540	858.1272
44.1560	879.7859
44.1580	866.4510
44.1600	879.3300
44.1620	745.8758
44.1640	758.9835
44.1660	734.5491
44.1680	794.3505
44.1700	825.6168
44.1720	754.1790
44.1740	781.2634
44.1760	729.9113
44.1780	780.6423
44.1800	738.4005
44.1820	707.1960
44.1840	730.2212
44.1860	744.5714
44.1880	754.0344
44.1900	760.2673
44.1920	800.8520
44.1940	833.6102
44.1960	825.3689
44.1980	796.5035
44.2000	816.4858
44.2020	859.6589
44.2040	877.3217
44.2060	861.2333
44.2080	934.6794
44.2100	882.3328
44.2120	932.7539
44.2140	1017.3408
44.2160	1007.3186
44.2180	997.2964
44.2200	1048.9185
44.2220	1090.6424
44.2240	1041.5671
44.2260	1091.7401
44.2280	1179.2666
44.2300	1211.0524
44.2320	1178.6660
44.2340	1126.7340
44.2360	1122.3234
44.2380	1096.5227
44.2400	1127.1486
44.2420	1119.5285
44.2440	1192.4982
44.2460	1133.7740
44.2480	1151.2923
44.2500	1073.7041
44.2520	1119.0520
44.2540	1098.8835
44.2560	1081.7180
44.2580	1120.6871
44.2600	1054.0536
44.2620	1013.5928
44.2640	929.8337
44.2660	981.3732
44.2680	952.3837
44.2700	913.5593
44.2720	967.7889
44.2740	958.0986
44.2760	921.4272
44.2780	913.7865
44.2800	896.2891
44.2820	895.3992
44.2840	913.8280
44.2860	930.3309
44.2880	940.4358
44.2900	996.5717
44.2920	934.7002
44.2940	1039.2902
44.2960	932.4425
44.2980	1060.3485
44.3000	1121.4336
44.3020	1084.4302
44.3040	1110.3135
44.3060	1106.5036
44.3080	1111.4733
44.3100	1199.2904
44.3120	1191.7736
44.3140	1252.2582
44.3160	1309.3254
44.3180	1291.3733
44.3200	1350.9254
44.3220	1296.6324
44.3240	1427.7477
44.3260	1385.6092
44.3280	1448.2467
44.3300	1444.3540
44.3320	1567.9940
44.3340	1505.7904
44.3360	1479.6798
44.3380	1454.9148
44.3400	1517.7383
44.3420	1482.1647
44.3440	1441.9931
44.3460	1438.7011
44.3480	1477.8368
44.3500	1422.2393
44.3520	1367.5730
44.3540	1451.6021
44.3560	1424.4336
44.3580	1336.8659
44.3600	1349.8069
44.3620	1272.5093
44.3640	1254.3286
44.3660	1192.4569
44.3680	1211.1970
44.3700	1160.1134
44.3720	1224.1999
44.3740	1207.9876
44.3760	1150.5471
44.3780	1159.1602
44.3800	1148.0622
44.3820	1194.7766
44.3840	1195.6250
44.3860	1144.9353
44.3880	1226.0016
44.3900	1319.2443
44.3920	1240.4137
44.3940	1282.6349
44.3960	1237.9082
44.3980	1284.5192
44.4000	1369.1681
44.4020	1370.9905
44.4040	1414.7846
44.4060	1549.0061
44.4080	1569.2571
44.4100	1597.2935
44.4120	1543.5184
44.4140	1619.3669
44.4160	1687.5127
44.4180	1804.8165
44.4200	1840.9907
44.4220	1958.4391
44.4240	1773.0322
44.4260	1833.0181
44.4280	1897.9339
44.4300	1910.9176
44.4320	1878.9046
44.4340	1890.2106
44.4360	1856.1893
44.4380	1990.4315
44.4400	1884.1637
44.4420	1841.7566
44.4440	1839.5003
44.4460	1881.5961
44.4480	1790.9636
44.4500	1776.9234
44.4520	1725.0754
44.4540	1661.7326
44.4560	1562.4650
44.4580	1650.2614
44.4600	1667.3856
44.4620	1623.1355
44.4640	1487.2997
44.4660	1529.1269
44.4680	1361.0302
44.4700	1414.6400
44.4720	1369.9546
44.4740	1401.9469
44.4760	1487.2791
44.4780	1451.2288
44.4800	1379.8322
44.4820	1389.7291
44.4840	1330.5710
44.4860	1460.1532
44.4880	1429.0315
44.4900	1388.4660
44.4920	1517.4904
44.4940	1561.0779
44.4960	1628.7265
44.4980	1606.6738
44.5000	1736.1114
44.5020	1722.6112
44.5040	1829.8087
44.5060	1929.2017
44.5080	2008.8602
44.5100	2002.1300
44.5120	2064.9755
44.5140	2148.5886
44.5160	2211.5787
44.5180	2302.6878
44.5200	2279.2273
44.5220	2307.5956
44.5240	2374.5610
44.5260	2256.5947
44.5280	2384.9345
44.5300	2356.1117
44.5320	2464.7390
44.5340	2463.2265
44.5360	2523.8557
44.5380	2462.4607
44.5400	2391.8299
44.5420	2264.1114
44.5440	2317.3479
44.5460	2275.2934
44.5480	2214.9534
44.5500	2216.6931
44.5520	2129.7453
44.5540	2043.7093
44.5560	1998.8999
44.5580	2011.0544
44.5600	1960.0549
44.5620	1916.2800
44.5640	1834.8611
44.5660	1824.4464
44.5680	1840.9907
44.5700	1725.3853
44.5720	1640.1978
44.5740	1662.7051
44.5760	1710.7666
44.5780	1681.6738
44.5800	1744.2493
44.5820	1739.8594
44.5840	1759.5306
44.5860	1736.7533
44.5880	1677.4905
44.5900	1858.4263
44.5920	1904.2908
44.5940	2054.3114
44.5960	2024.6800
44.5980	2179.5038
44.6000	2165.3616
44.6020	2252.5988
44.6040	2389.3864
44.6060	2424.5055
44.6080	2444.1973
44.6100	2506.4422
44.6120	2579.0399
44.6140	2719.6789
44.6160	2763.9718
44.6180	2780.3287
44.6200	2820.2936
44.6220	2934.0974
44.6240	2963.8939
44.6260	2946.2104
44.6280	3017.9596
44.6300	3102.4627
44.6320	3034.6279
44.6340	3177.8979
44.6360	3130.0858
44.6380	2980.2936
44.6400	2926.4774
44.6420	2977.2703
44.6440	2943.1251
44.6460	2785.2985
44.6480	2745.8529
44.6500	2737.7975
44.6520	2634.6358
44.6540	2603.0183
44.6560	2461.4455
44.6580	2460.9290
44.6600	2172.4416
44.6620	2254.4418
44.6640	2217.5623
44.6660	2167.6385
44.6680	2119.1032
44.6700	2090.8162
44.6720	1926.7168
44.6740	1962.3731
44.6760	2028.9253
44.6780	2077.7512
44.6800	2060.7716
44.6820	2172.1111
44.6840	2132.6654
44.6860	2098.6442
44.6880	2104.5038
44.6900	2220.7938
44.6920	2246.3865
44.6940	2460.9910
44.6960	2641.8219
44.6980	2639.9997
44.7000	2722.2270
44.7020	2716.9460
44.7040	2929.7693
44.7060	3023.0947
44.7080	3176.8621
44.7100	3362.5609
44.7120	3501.0264
44.7140	3349.3899
44.7160	3604.9732
44.7180	3663.3666
44.7200	3709.9351
44.7220	3868.7562
44.7240	3917.8728
44.7260	4105.5153
44.7280	4084.7477
44.7300	3952.8457
44.7320	3863.0204
44.7340	3884.0788
44.7360	3963.1159
44.7380	3857.9048
44.7400	3717.8456
44.7420	3681.9195
44.7440	3734.9907
44.7460	3528.2335
44.7480	3397.7821
44.7500	3319.3041
44.7520	3212.6229
44.7540	3003.2155
44.7560	3112.2989
44.7580	2999.7981
44.7600	2718.3538
44.7620	2598.2758
44.7640	2692.0983
44.7660	2608.3394
44.7680	2530.7305
44.7700	2522.3654
44.7720	2478.4871
44.7740	2294.6119
44.7760	2358.6792
44.7780	2260.4667
44.7800	2402.8053
44.7820	2421.3993
44.7840	2413.9653
44.7860	2623.9111
44.7880	2684.2717
44.7900	2611.7553
44.7920	2951.8015
44.7940	2934.0354
44.7960	3074.0751
44.7980	3356.2441
44.8000	3522.4579
44.8020	3599.1341
44.8040	3820.8407
44.8060	3878.2603
44.8080	4144.5076
44.8100	4260.1752
44.8120	4604.6303
44.8140	4573.0113
44.8160	4596.9884
44.8180	4721.7894
44.8200	4767.0535
44.8220	4786.3526
44.8240	4910.5933
44.8260	4894.9167
44.8280	4936.1447
44.8300	5105.9603
44.8320	5097.9466
44.8340	4963.6630
44.8360	4843.3784
44.8380	4778.1322
44.8400	4685.9857
44.8420	4706.2383
44.8440	4482.0468
44.8460	4395.3675
44.8480	4134.7746
44.8500	3973.8215
44.8520	3902.2168
44.8540	3811.8543
44.8560	3631.5191
44.8580	3570.7659
44.8600	3389.3535
44.8620	3104.0989
44.8640	3014.3356
44.8660	2891.4409
44.8680	2912.8724
44.8700	2882.4959
44.8720	2842.6355
44.8740	2684.6850
44.8760	2750.8640
44.8780	2778.5062
44.8800	2795.2381
44.8820	2812.0729
44.8840	3101.6967
44.8860	3133.1726
44.8880	3368.5224
44.8900	3403.7877
44.8920	3463.1331
44.8940	3712.7725
44.8960	3835.9980
44.8980	4145.5629
44.9000	4389.5300
44.9020	4473.3703
44.9040	4762.3551
44.9060	4950.3488
44.9080	5218.3360
44.9100	5403.8889
44.9120	5645.0791
44.9140	5661.0036
44.9160	5963.3219
44.9180	6289.1829
44.9200	6169.0007
44.9220	6364.1596
44.9240	6646.9318
44.9260	6546.3396
44.9280	6673.9326
44.9300	6533.0664
44.9320	6541.5332
44.9340	6365.3210
44.9360	6288.3540
44.9380	6133.1156
44.9400	6038.5478
44.9420	5872.2936
44.9440	5894.9883
44.9460	5590.8067
44.9480	5406.4959
44.9500	5092.3141
44.9520	4957.9068
44.9540	4576.0762
44.9560	4470.5965
44.9580	4288.9553
44.9600	4250.2149
44.9620	4097.1500
44.9640	3744.1010
44.9660	3629.1391
44.9680	3421.5110
44.9700	3356.3061
44.9720	3449.3009
44.9740	3391.4459
44.9760	3441.2665
44.9780	3458.9278
44.9800	3413.2715
44.9820	3486.8414
44.9840	3710.8883
44.9860	3857.2643
44.9880	4116.7815
44.9900	4470.2246
44.9920	4637.0773
44.9940	4681.3068
44.9960	4921.5687
44.9980	5208.3551
45.0000	5482.7191
45.0020	5958.9522
45.0040	6329.4772
45.0060	6583.6734
45.0080	6783.5541
45.0100	6949.3753
45.0120	7376.9449
45.0140	7483.8768
45.0160	7932.3407
45.0180	8216.8928
45.0200	8336.2048
45.0220	8491.4006
45.0240	8508.6906
45.0260	8399.2985
45.0280	8453.2804
45.0300	8500.5729
45.0320	8420.7714
45.0340	8501.6091
45.0360	8405.1996
45.0380	8107.9528
45.0400	7797.4582
45.0420	7587.7600
45.0440	7523.6739
45.0460	7221.4173
45.0480	6877.6027
45.0500	6712.4673
45.0520	6289.4308
45.0540	6018.1093
45.0560	5625.5527
45.0580	5183.6930
45.0600	5085.1489
45.0620	4703.3593
45.0640	4702.5523
45.0660	4572.5968
45.0680	4434.8767
45.0700	4121.0871
45.0720	4070.2528
45.0740	4136.1414
45.0760	4055.2815
45.0780	4177.6583
45.0800	4428.6657
45.0820	4431.1493
45.0840	4743.3036
45.0860	4850.7505
45.0880	5091.6942
45.0900	5516.6152
45.0920	6023.7236
45.0940	6590.7975
45.0960	6880.6679
45.0980	7332.4290
45.1000	7756.6847
45.1020	7897.6792
45.1040	8712.2392
45.1060	9189.8804
45.1080	9587.7169
45.1100	10183.2842
45.1120	10495.7691
45.1140	10760.2941
45.1160	11070.0270
45.1180	11313.0409
45.1200	11631.6143
45.1220	12033.6331
45.1240	12198.9547
45.1260	12321.6835
45.1280	12175.9499
45.1300	12207.6102
45.1320	12059.9104
45.1340	11888.7494
45.1360	11950.8465
45.1380	11248.7457
45.1400	11288.9580
45.1420	10905.8204
45.1440	10625.9716
45.1460	10323.8803
45.1480	9512.6545
45.1500	8907.3764
45.1520	8711.2641
45.1540	8397.7437
45.1560	7754.6988
45.1580	7554.8162
45.1600	7154.2647
45.1620	6702.6727
45.1640	6240.8518
45.1660	6048.2808
45.1680	5830.2176
45.1700	5761.0161
45.1720	5812.4730
45.1740	5928.4094
45.1760	5863.3279
45.1780	5803.8792
45.1800	6282.2667
45.1820	6424.8314
45.1840	6707.1065
45.1860	7411.5268
45.1880	7903.4977
45.1900	8577.7286
45.1920	9132.2936
45.1940	9571.7332
45.1960	10196.8873
45.1980	10850.5779
45.2000	11780.5378
45.2020	12653.9463
45.2040	13724.3344
45.2060	14335.0794
45.2080	14950.3772
45.2100	15794.4876
45.2120	15885.6176
45.2140	16771.3477
45.2160	17393.9565
45.2180	18017.9308
45.2200	18455.8161
45.2220	18817.8706
45.2240	19072.6657
45.2260	19087.7848
45.2280	19027.6897
45.2300	19109.0084
45.2320	19174.0671
45.2340	19128.4509
45.2360	19020.6501
45.2380	18287.6340
45.2400	17468.4342
45.2420	16967.2713
45.2440	16612.3589
45.2460	16127.3253
45.2480	15598.7650
45.2500	15171.2978
45.2520	14513.7142
45.2540	13455.8265
45.2560	12837.4881
45.2580	12175.3886
45.2600	11537.6879
45.2620	11597.6338
45.2640	11608.5651
45.2660	11077.9769
45.2680	10738.6781
45.2700	10373.8656
45.2720	10421.6170
45.2740	10473.4242
45.2760	10914.5413
45.2780	11781.4481
45.2800	12661.0896
45.2820	13703.3192
45.2840	14030.4026
45.2860	15074.1211
45.2880	15990.0005
45.2900	17570.3377
45.2920	19187.6345
45.2940	20926.0835
